File: Example_Raw_Data_Files/Electrodeposition/Co15-FTO_CP_-500µA_30min.txt
Time (s);WE(1).Potential (V);Corrected time (s);Index;WE(1).Current (A);Current range
3.49593;-0.947266;0;1;-0.000500305;1 mA
11.4959;-0.959473;8;9;-0.000500427;1 mA
19.4959;-0.950317;16;17;-0.000500427;1 mA
27.4959;-0.93811;24;25;-0.000500397;1 mA
35.4959;-0.926208;32;33;-0.000500397;1 mA
43.4959;-0.916138;40;41;-0.000500336;1 mA
51.4959;-0.907898;48;49;-0.000500366;1 mA
59.4959;-0.900879;56;57;-0.000500336;1 mA
67.4959;-0.894775;64;65;-0.000500366;1 mA
75.4959;-0.889587;72;73;-0.000500275;1 mA
83.4959;-0.88501;80;81;-0.000500305;1 mA
91.4959;-0.881042;88;89;-0.000500305;1 mA
99.4959;-0.87738;96;97;-0.000500275;1 mA
107.496;-0.874023;104;105;-0.000500336;1 mA
115.496;-0.871277;112;113;-0.000500244;1 mA
123.496;-0.86853;120;121;-0.000500305;1 mA
131.496;-0.865784;128;129;-0.000500305;1 mA
139.496;-0.863647;136;137;-0.000500214;1 mA
147.496;-0.861206;144;145;-0.000500214;1 mA
155.496;-0.859375;152;153;-0.000500214;1 mA
163.496;-0.857239;160;161;-0.000500275;1 mA
171.496;-0.855408;168;169;-0.000500214;1 mA
179.496;-0.853882;176;177;-0.000500244;1 mA
187.496;-0.852356;184;185;-0.000500183;1 mA
195.496;-0.85083;192;193;-0.000500153;1 mA
203.496;-0.849304;200;201;-0.000500183;1 mA
211.496;-0.847778;208;209;-0.000500183;1 mA
219.496;-0.846558;216;217;-0.000500153;1 mA
227.496;-0.845337;224;225;-0.000500244;1 mA
235.496;-0.844116;232;233;-0.000500183;1 mA
243.496;-0.842896;240;241;-0.000500153;1 mA
251.496;-0.84198;248;249;-0.000500153;1 mA
259.496;-0.840759;256;257;-0.000500122;1 mA
267.496;-0.839844;264;265;-0.000500153;1 mA
275.496;-0.838928;272;273;-0.000500092;1 mA
283.496;-0.838013;280;281;-0.000500092;1 mA
291.496;-0.837097;288;289;-0.000500092;1 mA
299.496;-0.836182;296;297;-0.000500122;1 mA
307.496;-0.835571;304;305;-0.000500122;1 mA
315.496;-0.834656;312;313;-0.000500092;1 mA
323.496;-0.834045;320;321;-0.000500092;1 mA
331.496;-0.83313;328;329;-0.000500061;1 mA
339.496;-0.83252;336;337;-0.000500031;1 mA
347.496;-0.831909;344;345;-0.000500092;1 mA
355.496;-0.830994;352;353;-0.000500092;1 mA
363.496;-0.830383;360;361;-0.000500092;1 mA
371.496;-0.829773;368;369;-0.0005;1 mA
379.496;-0.829163;376;377;-0.000500061;1 mA
387.496;-0.828552;384;385;-0.000500031;1 mA
395.496;-0.827942;392;393;-0.0005;1 mA
403.496;-0.827637;400;401;-0.0005;1 mA
411.496;-0.827026;408;409;-0.000500031;1 mA
419.496;-0.826416;416;417;-0.0005;1 mA
427.496;-0.826111;424;425;-0.000500031;1 mA
435.496;-0.8255;432;433;-0.0005;1 mA
443.496;-0.825195;440;441;-0.000500061;1 mA
451.496;-0.824585;448;449;-0.000500061;1 mA
459.496;-0.82428;456;457;-0.0005;1 mA
467.496;-0.823669;464;465;-0.0005;1 mA
475.496;-0.823364;472;473;-0.000500031;1 mA
483.496;-0.823059;480;481;-0.000500061;1 mA
491.496;-0.822754;488;489;-0.000500061;1 mA
499.496;-0.822144;496;497;-0.0005;1 mA
507.496;-0.821838;504;505;-0.000500031;1 mA
515.496;-0.821533;512;513;-0.0005;1 mA
523.496;-0.821228;520;521;-0.0005;1 mA
531.496;-0.820923;528;529;-0.0005;1 mA
539.496;-0.820618;536;537;-0.0005;1 mA
547.496;-0.8203125;544;545;-0.0005;1 mA
555.496;-0.820007;552;553;-0.0005;1 mA
563.496;-0.819702;560;561;-0.0005;1 mA
571.496;-0.819397;568;569;-0.0005;1 mA
579.496;-0.819397;576;577;-0.000499969;1 mA
587.496;-0.819092;584;585;-0.0005;1 mA
595.496;-0.818787;592;593;-0.0005;1 mA
603.496;-0.818481;600;601;-0.000499969;1 mA
611.496;-0.818481;608;609;-0.000500031;1 mA
619.496;-0.818176;616;617;-0.000499969;1 mA
627.496;-0.817871;624;625;-0.000499969;1 mA
635.496;-0.817871;632;633;-0.000499969;1 mA
643.496;-0.817566;640;641;-0.000499969;1 mA
651.496;-0.817566;648;649;-0.000499939;1 mA
659.496;-0.817261;656;657;-0.000499969;1 mA
667.496;-0.817261;664;665;-0.000499969;1 mA
675.496;-0.816956;672;673;-0.0005;1 mA
683.496;-0.816956;680;681;-0.000499969;1 mA
691.496;-0.81665;688;689;-0.0005;1 mA
699.496;-0.81665;696;697;-0.000499939;1 mA
707.496;-0.816345;704;705;-0.000499939;1 mA
715.496;-0.816345;712;713;-0.000499969;1 mA
723.496;-0.816345;720;721;-0.0005;1 mA
731.496;-0.81604;728;729;-0.000499969;1 mA
739.496;-0.81604;736;737;-0.0005;1 mA
747.496;-0.81604;744;745;-0.000499939;1 mA
755.496;-0.815735;752;753;-0.000499939;1 mA
763.496;-0.815735;760;761;-0.000499908;1 mA
771.496;-0.815735;768;769;-0.000499969;1 mA
779.496;-0.815735;776;777;-0.0005;1 mA
787.496;-0.81543;784;785;-0.000499969;1 mA
795.496;-0.81543;792;793;-0.000499969;1 mA
803.496;-0.81543;800;801;-0.000499939;1 mA
811.496;-0.81543;808;809;-0.0005;1 mA
819.496;-0.815125;816;817;-0.000499908;1 mA
827.496;-0.815125;824;825;-0.000499878;1 mA
835.496;-0.815125;832;833;-0.000499939;1 mA
843.496;-0.815125;840;841;-0.000499908;1 mA
851.496;-0.815125;848;849;-0.000499847;1 mA
859.496;-0.815125;856;857;-0.000499969;1 mA
867.496;-0.815125;864;865;-0.000499939;1 mA
875.496;-0.815125;872;873;-0.000499939;1 mA
883.496;-0.815125;880;881;-0.0005;1 mA
891.496;-0.814819;888;889;-0.000499939;1 mA
899.496;-0.814819;896;897;-0.000499939;1 mA
907.496;-0.815125;904;905;-0.000499908;1 mA
915.496;-0.815125;912;913;-0.000499908;1 mA
923.496;-0.815125;920;921;-0.000499939;1 mA
931.496;-0.815125;928;929;-0.000499969;1 mA
939.496;-0.815125;936;937;-0.000499939;1 mA
947.496;-0.815125;944;945;-0.000499908;1 mA
955.496;-0.815125;952;953;-0.000499969;1 mA
963.496;-0.815125;960;961;-0.000499969;1 mA
971.496;-0.815125;968;969;-0.000499908;1 mA
979.496;-0.815125;976;977;-0.000499847;1 mA
987.496;-0.815125;984;985;-0.000499908;1 mA
995.496;-0.815125;992;993;-0.000499969;1 mA
1003.5;-0.815125;1000;1001;-0.000499908;1 mA
1011.5;-0.815125;1008;1009;-0.000499939;1 mA
1019.5;-0.815125;1016;1017;-0.000499939;1 mA
1027.5;-0.815125;1024;1025;-0.000499908;1 mA
1035.5;-0.81543;1032;1033;-0.000499969;1 mA
1043.5;-0.81543;1040;1041;-0.000499878;1 mA
1051.5;-0.81543;1048;1049;-0.000499939;1 mA
1059.5;-0.81543;1056;1057;-0.000499969;1 mA
1067.5;-0.81543;1064;1065;-0.000499878;1 mA
1075.5;-0.81543;1072;1073;-0.000499878;1 mA
1083.5;-0.81543;1080;1081;-0.000499908;1 mA
1091.5;-0.815735;1088;1089;-0.000499817;1 mA
1099.5;-0.815735;1096;1097;-0.000499969;1 mA
1107.5;-0.815735;1104;1105;-0.000499908;1 mA
1115.5;-0.815735;1112;1113;-0.000499939;1 mA
1123.5;-0.81604;1120;1121;-0.000499878;1 mA
1131.5;-0.81604;1128;1129;-0.000499908;1 mA
1139.5;-0.81604;1136;1137;-0.000499908;1 mA
1147.5;-0.81604;1144;1145;-0.000499847;1 mA
1155.5;-0.816345;1152;1153;-0.000499908;1 mA
1163.5;-0.816345;1160;1161;-0.000499847;1 mA
1171.5;-0.816345;1168;1169;-0.000499878;1 mA
1179.5;-0.816345;1176;1177;-0.000499878;1 mA
1187.5;-0.81665;1184;1185;-0.000499908;1 mA
1195.5;-0.81665;1192;1193;-0.000499878;1 mA
1203.5;-0.81665;1200;1201;-0.000499878;1 mA
1211.5;-0.81665;1208;1209;-0.000499939;1 mA
1219.5;-0.816956;1216;1217;-0.000499847;1 mA
1227.5;-0.816956;1224;1225;-0.000499878;1 mA
1235.5;-0.816956;1232;1233;-0.000499878;1 mA
1243.5;-0.817261;1240;1241;-0.000499878;1 mA
1251.5;-0.817261;1248;1249;-0.000499878;1 mA
1259.5;-0.817261;1256;1257;-0.000499847;1 mA
1267.5;-0.817566;1264;1265;-0.000499847;1 mA
1275.5;-0.817566;1272;1273;-0.000499908;1 mA
1283.5;-0.817566;1280;1281;-0.000499939;1 mA
1291.5;-0.817566;1288;1289;-0.000499939;1 mA
1299.5;-0.817871;1296;1297;-0.000499908;1 mA
1307.5;-0.817871;1304;1305;-0.000499908;1 mA
1315.5;-0.817871;1312;1313;-0.000499878;1 mA
1323.5;-0.818176;1320;1321;-0.000499847;1 mA
1331.5;-0.818176;1328;1329;-0.000499908;1 mA
1339.5;-0.818176;1336;1337;-0.000499939;1 mA
1347.5;-0.818481;1344;1345;-0.000499939;1 mA
1355.5;-0.818481;1352;1353;-0.000499939;1 mA
1363.5;-0.818481;1360;1361;-0.000499878;1 mA
1371.5;-0.818787;1368;1369;-0.000499847;1 mA
1379.5;-0.818787;1376;1377;-0.000499908;1 mA
1387.5;-0.818787;1384;1385;-0.000499847;1 mA
1395.5;-0.819092;1392;1393;-0.000499878;1 mA
1403.5;-0.819092;1400;1401;-0.000499878;1 mA
1411.5;-0.819092;1408;1409;-0.000499878;1 mA
1419.5;-0.819397;1416;1417;-0.000499908;1 mA
1427.5;-0.819397;1424;1425;-0.000499939;1 mA
1435.5;-0.819397;1432;1433;-0.000499878;1 mA
1443.5;-0.819702;1440;1441;-0.000499908;1 mA
1451.5;-0.819702;1448;1449;-0.000499878;1 mA
1459.5;-0.820007;1456;1457;-0.000499878;1 mA
1467.5;-0.820007;1464;1465;-0.000499878;1 mA
1475.5;-0.820007;1472;1473;-0.000499847;1 mA
1483.5;-0.8203125;1480;1481;-0.000499847;1 mA
1491.5;-0.8203125;1488;1489;-0.000499939;1 mA
1499.5;-0.820618;1496;1497;-0.000499908;1 mA
1507.5;-0.820618;1504;1505;-0.000499878;1 mA
1515.5;-0.820618;1512;1513;-0.000499878;1 mA
1523.5;-0.820923;1520;1521;-0.000499847;1 mA
1531.5;-0.820923;1528;1529;-0.000499847;1 mA
1539.5;-0.821228;1536;1537;-0.000499878;1 mA
1547.5;-0.821228;1544;1545;-0.000499847;1 mA
1555.5;-0.821533;1552;1553;-0.000499878;1 mA
1563.5;-0.821533;1560;1561;-0.000499817;1 mA
1571.5;-0.821533;1568;1569;-0.000499908;1 mA
1579.5;-0.821838;1576;1577;-0.000499939;1 mA
1587.5;-0.821838;1584;1585;-0.000499878;1 mA
1595.5;-0.822144;1592;1593;-0.000499878;1 mA
1603.5;-0.822144;1600;1601;-0.000499908;1 mA
1611.5;-0.822449;1608;1609;-0.000499878;1 mA
1619.5;-0.822449;1616;1617;-0.000499908;1 mA
1627.5;-0.822449;1624;1625;-0.000499847;1 mA
1635.5;-0.822754;1632;1633;-0.000499878;1 mA
1643.5;-0.822754;1640;1641;-0.000499847;1 mA
1651.5;-0.823059;1648;1649;-0.000499908;1 mA
1659.5;-0.823059;1656;1657;-0.000499786;1 mA
1667.5;-0.823059;1664;1665;-0.000499878;1 mA
1675.5;-0.823364;1672;1673;-0.000499878;1 mA
1683.5;-0.823364;1680;1681;-0.000499878;1 mA
1691.5;-0.823669;1688;1689;-0.000499817;1 mA
1699.5;-0.823669;1696;1697;-0.000499847;1 mA
1707.5;-0.823975;1704;1705;-0.000499847;1 mA
1715.5;-0.823975;1712;1713;-0.000499817;1 mA
1723.5;-0.823975;1720;1721;-0.000499847;1 mA
1731.5;-0.82428;1728;1729;-0.000499878;1 mA
1739.5;-0.82428;1736;1737;-0.000499878;1 mA
1747.5;-0.824585;1744;1745;-0.000499756;1 mA
1755.5;-0.824585;1752;1753;-0.000499847;1 mA
1763.5;-0.82489;1760;1761;-0.000499847;1 mA
1771.5;-0.82489;1768;1769;-0.000499908;1 mA
1779.5;-0.82489;1776;1777;-0.000499908;1 mA
1787.5;-0.825195;1784;1785;-0.000499786;1 mA
1795.5;-0.825195;1792;1793;-0.000499908;1 mA
1802.5;-0.8255;1799;1800;-0.000499908;1 mA