File: Example_Raw_Data_Files/Electrodeposition/Co7.0-FTO_CP_-500µA_30min.txt
Time (s);WE(1).Potential (V);Corrected time (s);Index;WE(1).Current (A);Current range
3.45593;-0.975647;0;1;-0.000500458;1 mA
11.4559;-0.975037;8;9;-0.00050058;1 mA
19.4559;-0.965271;16;17;-0.000500519;1 mA
27.4559;-0.953979;24;25;-0.000500458;1 mA
35.4559;-0.943909;32;33;-0.000500488;1 mA
43.4559;-0.935669;40;41;-0.000500458;1 mA
51.4559;-0.92804;48;49;-0.000500397;1 mA
59.4559;-0.921631;56;57;-0.000500427;1 mA
67.4559;-0.916138;64;65;-0.000500366;1 mA
75.4559;-0.91156;72;73;-0.000500336;1 mA
83.4559;-0.907288;80;81;-0.000500336;1 mA
91.4559;-0.903625;88;89;-0.000500305;1 mA
99.4559;-0.900574;96;97;-0.000500305;1 mA
107.456;-0.897827;104;105;-0.000500275;1 mA
115.456;-0.895386;112;113;-0.000500305;1 mA
123.456;-0.892944;120;121;-0.000500275;1 mA
131.456;-0.891113;128;129;-0.000500244;1 mA
139.456;-0.888977;136;137;-0.000500275;1 mA
147.456;-0.887451;144;145;-0.000500275;1 mA
155.456;-0.885925;152;153;-0.000500183;1 mA
163.456;-0.884399;160;161;-0.000500183;1 mA
171.456;-0.882874;168;169;-0.000500244;1 mA
179.456;-0.881653;176;177;-0.000500214;1 mA
187.456;-0.880432;184;185;-0.000500244;1 mA
195.456;-0.879211;192;193;-0.000500214;1 mA
203.456;-0.877991;200;201;-0.000500153;1 mA
211.456;-0.877075;208;209;-0.000500183;1 mA
219.456;-0.875854;216;217;-0.000500122;1 mA
227.456;-0.874939;224;225;-0.000500214;1 mA
235.456;-0.874023;232;233;-0.000500122;1 mA
243.456;-0.873413;240;241;-0.000500214;1 mA
251.456;-0.872498;248;249;-0.000500153;1 mA
259.456;-0.871887;256;257;-0.000500122;1 mA
267.456;-0.870972;264;265;-0.000500061;1 mA
275.456;-0.870361;272;273;-0.000500122;1 mA
283.456;-0.869751;280;281;-0.000500092;1 mA
291.456;-0.869141;288;289;-0.000500122;1 mA
299.456;-0.868225;296;297;-0.000500153;1 mA
307.456;-0.86792;304;305;-0.000500153;1 mA
315.456;-0.86731;312;313;-0.000500092;1 mA
323.456;-0.866699;320;321;-0.000500122;1 mA
331.456;-0.866089;328;329;-0.000500122;1 mA
339.456;-0.865784;336;337;-0.000500092;1 mA
347.456;-0.865173;344;345;-0.000500061;1 mA
355.456;-0.864868;352;353;-0.000500061;1 mA
363.456;-0.864258;360;361;-0.000500153;1 mA
371.456;-0.863953;368;369;-0.000500061;1 mA
379.456;-0.863647;376;377;-0.000500122;1 mA
387.456;-0.863342;384;385;-0.000500061;1 mA
395.456;-0.862732;392;393;-0.0005;1 mA
403.456;-0.862427;400;401;-0.000500061;1 mA
411.456;-0.862122;408;409;-0.000500061;1 mA
419.456;-0.861816;416;417;-0.000500061;1 mA
427.456;-0.861511;424;425;-0.0005;1 mA
435.456;-0.861206;432;433;-0.000500031;1 mA
443.456;-0.860901;440;441;-0.0005;1 mA
451.456;-0.860901;448;449;-0.000500031;1 mA
459.456;-0.860596;456;457;-0.0005;1 mA
467.456;-0.860291;464;465;-0.0005;1 mA
475.456;-0.859985;472;473;-0.0005;1 mA
483.456;-0.859985;480;481;-0.0005;1 mA
491.456;-0.85968;488;489;-0.0005;1 mA
499.456;-0.85968;496;497;-0.000500092;1 mA
507.456;-0.859375;504;505;-0.000500031;1 mA
515.456;-0.859375;512;513;-0.000500031;1 mA
523.456;-0.85907;520;521;-0.000500031;1 mA
531.456;-0.85907;528;529;-0.0005;1 mA
539.456;-0.858765;536;537;-0.0005;1 mA
547.456;-0.858765;544;545;-0.000500031;1 mA
555.456;-0.858765;552;553;-0.000500031;1 mA
563.456;-0.858459;560;561;-0.0005;1 mA
571.456;-0.858459;568;569;-0.0005;1 mA
579.456;-0.858459;576;577;-0.0005;1 mA
587.456;-0.858154;584;585;-0.000500031;1 mA
595.456;-0.858154;592;593;-0.0005;1 mA
603.456;-0.858154;600;601;-0.000500031;1 mA
611.456;-0.858154;608;609;-0.0005;1 mA
619.456;-0.858154;616;617;-0.0005;1 mA
627.456;-0.858154;624;625;-0.0005;1 mA
635.456;-0.858154;632;633;-0.0005;1 mA
643.456;-0.858154;640;641;-0.000500031;1 mA
651.456;-0.858154;648;649;-0.000500031;1 mA
659.456;-0.857849;656;657;-0.0005;1 mA
667.456;-0.857849;664;665;-0.0005;1 mA
675.456;-0.858154;672;673;-0.000499969;1 mA
683.456;-0.858154;680;681;-0.0005;1 mA
691.456;-0.858154;688;689;-0.000499969;1 mA
699.456;-0.858154;696;697;-0.000500031;1 mA
707.456;-0.858154;704;705;-0.0005;1 mA
715.456;-0.858154;712;713;-0.0005;1 mA
723.456;-0.858154;720;721;-0.0005;1 mA
731.456;-0.858154;728;729;-0.0005;1 mA
739.456;-0.858459;736;737;-0.0005;1 mA
747.456;-0.858459;744;745;-0.000499969;1 mA
755.456;-0.858459;752;753;-0.000499969;1 mA
763.456;-0.858765;760;761;-0.0005;1 mA
771.456;-0.858765;768;769;-0.0005;1 mA
779.456;-0.858765;776;777;-0.0005;1 mA
787.456;-0.858765;784;785;-0.0005;1 mA
795.456;-0.85907;792;793;-0.0005;1 mA
803.456;-0.85907;800;801;-0.000499939;1 mA
811.456;-0.85907;808;809;-0.000499939;1 mA
819.456;-0.859375;816;817;-0.0005;1 mA
827.456;-0.859375;824;825;-0.000499969;1 mA
835.456;-0.85968;832;833;-0.000499969;1 mA
843.456;-0.85968;840;841;-0.0005;1 mA
851.456;-0.859985;848;849;-0.0005;1 mA
859.456;-0.859985;856;857;-0.000499969;1 mA
867.456;-0.859985;864;865;-0.0005;1 mA
875.456;-0.860291;872;873;-0.000499939;1 mA
883.456;-0.860291;880;881;-0.000499969;1 mA
891.456;-0.860596;888;889;-0.000499969;1 mA
899.456;-0.860901;896;897;-0.0005;1 mA
907.456;-0.860901;904;905;-0.000499939;1 mA
915.456;-0.861206;912;913;-0.000499969;1 mA
923.456;-0.861206;920;921;-0.0005;1 mA
931.456;-0.861511;928;929;-0.000499969;1 mA
939.456;-0.861511;936;937;-0.0005;1 mA
947.456;-0.861816;944;945;-0.000499969;1 mA
955.456;-0.862122;952;953;-0.000499969;1 mA
963.456;-0.862122;960;961;-0.0005;1 mA
971.456;-0.862427;968;969;-0.000499969;1 mA
979.456;-0.862732;976;977;-0.000499939;1 mA
987.456;-0.862732;984;985;-0.000499847;1 mA
995.456;-0.863037;992;993;-0.000499939;1 mA
1003.46;-0.863342;1000;1001;-0.000499939;1 mA
1011.46;-0.863342;1008;1009;-0.000499939;1 mA
1019.46;-0.863647;1016;1017;-0.000499969;1 mA
1027.46;-0.863953;1024;1025;-0.0005;1 mA
1035.46;-0.863953;1032;1033;-0.000499939;1 mA
1043.46;-0.864258;1040;1041;-0.0005;1 mA
1051.46;-0.864563;1048;1049;-0.000499969;1 mA
1059.46;-0.864868;1056;1057;-0.000499969;1 mA
1067.46;-0.864868;1064;1065;-0.0005;1 mA
1075.46;-0.865173;1072;1073;-0.000499939;1 mA
1083.46;-0.865479;1080;1081;-0.0005;1 mA
1091.46;-0.865479;1088;1089;-0.000499939;1 mA
1099.46;-0.865784;1096;1097;-0.0005;1 mA
1107.46;-0.866089;1104;1105;-0.000499969;1 mA
1115.46;-0.866394;1112;1113;-0.000499969;1 mA
1123.46;-0.866699;1120;1121;-0.000499908;1 mA
1131.46;-0.866699;1128;1129;-0.000499939;1 mA
1139.46;-0.867004;1136;1137;-0.000499969;1 mA
1147.46;-0.86731;1144;1145;-0.000499969;1 mA
1155.46;-0.867615;1152;1153;-0.000499939;1 mA
1163.46;-0.867615;1160;1161;-0.000499969;1 mA
1171.46;-0.86792;1168;1169;-0.000499939;1 mA
1179.46;-0.868225;1176;1177;-0.000500031;1 mA
1187.46;-0.86853;1184;1185;-0.000499908;1 mA
1195.46;-0.868835;1192;1193;-0.000499939;1 mA
1203.46;-0.868835;1200;1201;-0.000499908;1 mA
1211.46;-0.869141;1208;1209;-0.000499969;1 mA
1219.46;-0.869446;1216;1217;-0.000499939;1 mA
1227.46;-0.869751;1224;1225;-0.000499969;1 mA
1235.46;-0.870056;1232;1233;-0.0005;1 mA
1243.46;-0.870056;1240;1241;-0.000499969;1 mA
1251.46;-0.870361;1248;1249;-0.0005;1 mA
1259.46;-0.870667;1256;1257;-0.000499969;1 mA
1267.46;-0.870972;1264;1265;-0.0005;1 mA
1275.46;-0.871277;1272;1273;-0.000499878;1 mA
1283.46;-0.871582;1280;1281;-0.000499969;1 mA
1291.46;-0.871582;1288;1289;-0.000499969;1 mA
1299.46;-0.871887;1296;1297;-0.000499969;1 mA
1307.46;-0.872192;1304;1305;-0.000499939;1 mA
1315.46;-0.872498;1312;1313;-0.000499908;1 mA
1323.46;-0.872803;1320;1321;-0.000499939;1 mA
1331.46;-0.872803;1328;1329;-0.0005;1 mA
1339.46;-0.873108;1336;1337;-0.000499969;1 mA
1347.46;-0.873413;1344;1345;-0.0005;1 mA
1355.46;-0.873718;1352;1353;-0.000499969;1 mA
1363.46;-0.874023;1360;1361;-0.000499939;1 mA
1371.46;-0.874023;1368;1369;-0.000499969;1 mA
1379.46;-0.874329;1376;1377;-0.000499908;1 mA
1387.46;-0.874634;1384;1385;-0.000499939;1 mA
1395.46;-0.874939;1392;1393;-0.000499939;1 mA
1403.46;-0.875244;1400;1401;-0.000499939;1 mA
1411.46;-0.875244;1408;1409;-0.000499969;1 mA
1419.46;-0.875549;1416;1417;-0.000499908;1 mA
1427.46;-0.875854;1424;1425;-0.000499908;1 mA
1435.46;-0.87616;1432;1433;-0.000499939;1 mA
1443.46;-0.876465;1440;1441;-0.000499969;1 mA
1451.46;-0.876465;1448;1449;-0.000499969;1 mA
1459.46;-0.87677;1456;1457;-0.000499939;1 mA
1467.46;-0.877075;1464;1465;-0.0005;1 mA
1475.46;-0.87738;1472;1473;-0.000499939;1 mA
1483.46;-0.877686;1480;1481;-0.000499908;1 mA
1491.46;-0.877686;1488;1489;-0.000499847;1 mA
1499.46;-0.877991;1496;1497;-0.000499908;1 mA
1507.46;-0.878296;1504;1505;-0.000499908;1 mA
1515.46;-0.878601;1512;1513;-0.000499969;1 mA
1523.46;-0.878601;1520;1521;-0.000499908;1 mA
1531.46;-0.878906;1528;1529;-0.000499878;1 mA
1539.46;-0.879211;1536;1537;-0.000499908;1 mA
1547.46;-0.879517;1544;1545;-0.000499908;1 mA
1555.46;-0.879517;1552;1553;-0.000499939;1 mA
1563.46;-0.879822;1560;1561;-0.000499847;1 mA
1571.46;-0.880127;1568;1569;-0.000499969;1 mA
1579.46;-0.880432;1576;1577;-0.000499847;1 mA
1587.46;-0.880432;1584;1585;-0.000499908;1 mA
1595.46;-0.880737;1592;1593;-0.000499969;1 mA
1603.46;-0.881042;1600;1601;-0.000499939;1 mA
1611.46;-0.881042;1608;1609;-0.000499878;1 mA
1619.46;-0.881348;1616;1617;-0.000499969;1 mA
1627.46;-0.881653;1624;1625;-0.000499939;1 mA
1635.46;-0.881958;1632;1633;-0.000499969;1 mA
1643.46;-0.881958;1640;1641;-0.000499878;1 mA
1651.46;-0.882263;1648;1649;-0.000499939;1 mA
1659.46;-0.882568;1656;1657;-0.000499969;1 mA
1667.46;-0.882568;1664;1665;-0.000499939;1 mA
1675.46;-0.882874;1672;1673;-0.000499878;1 mA
1683.46;-0.883179;1680;1681;-0.000499878;1 mA
1691.46;-0.883179;1688;1689;-0.000499939;1 mA
1699.46;-0.883484;1696;1697;-0.000499908;1 mA
1707.46;-0.883789;1704;1705;-0.000499939;1 mA
1715.46;-0.883789;1712;1713;-0.000499939;1 mA
1723.46;-0.884094;1720;1721;-0.000499939;1 mA
1731.46;-0.884399;1728;1729;-0.000499908;1 mA
1739.46;-0.884399;1736;1737;-0.0005;1 mA
1747.46;-0.884705;1744;1745;-0.000499878;1 mA
1755.46;-0.88501;1752;1753;-0.000499908;1 mA
1763.46;-0.88501;1760;1761;-0.0005;1 mA
1771.46;-0.885315;1768;1769;-0.000499908;1 mA
1779.46;-0.88562;1776;1777;-0.000499969;1 mA
1787.46;-0.88562;1784;1785;-0.000499878;1 mA
1795.46;-0.885925;1792;1793;-0.000499908;1 mA
1802.46;-0.885925;1799;1800;-0.000499939;1 mA